# temperature[K] Free energy [kJ/mol] Entropy [J/K/mol] Heat capacity [J/K/mol] Energy [kJ/mol]
     0.0000000     47.6570885      0.0000000      0.0000000     47.6570885 
    10.0000000     47.6567186      0.0492169      0.0266812     47.6572108 
    20.0000000     47.6560521      0.0884235      0.1049884     47.6578206 
    30.0000000     47.6548602      0.1544540      0.2382472     47.6594938 
    40.0000000     47.6528753      0.2467765      0.4197712     47.6627464 
    50.0000000     47.6498425      0.3637394      0.6434255     47.6680295 
    60.0000000     47.6455242      0.5035960      0.9047176     47.6757400 
    70.0000000     47.6396991      0.6649155      1.2019065     47.6862432 
    80.0000000     47.6321575      0.8467841      1.5357579     47.6999002 
    90.0000000     47.6226963      1.0487819      1.9081039     47.7170867 
   100.0000000     47.6111151      1.2707996      2.3202322     47.7381951 
   110.0000000     47.5972137      1.5128144      2.7718706     47.7636233 
   120.0000000     47.5807925      1.7747063      3.2608992     47.7937573 
   130.0000000     47.5616544      2.0561474      3.7835715     47.8289536 
   140.0000000     47.5396063      2.3565588      4.3349716     47.8695245 
   150.0000000     47.5144627      2.6751164      4.9095174     47.9157302 
   160.0000000     47.4860469      3.0107860      5.5014065     47.9677727 
   170.0000000     47.4541939      3.3623721      6.1049693     48.0257972 
   180.0000000     47.4187508      3.7285697      6.7149224     48.0898933 
   190.0000000     47.3795783      4.1080142      7.3265351     48.1601010 
   200.0000000     47.3365510      4.4993246      7.9357229     48.2364159 
   210.0000000     47.2895568      4.9011389      8.5390849     48.3187960 
   220.0000000     47.2384976      5.3121430      9.1338993     48.4071691 
   230.0000000     47.1832875      5.7310913      9.7180883     48.5014385 
   240.0000000     47.1238531      6.1568217     10.2901634     48.6014903 
   250.0000000     47.0601320      6.5882643     10.8491586     48.7071981 
   260.0000000     46.9920721      7.0244465     11.3945570     48.8184282 
   270.0000000     46.9196302      7.4644933     11.9262178     48.9350434 
   280.0000000     46.8427719      7.9076261     12.4443042     49.0569072 
   290.0000000     46.7614697      8.3531582     12.9492171     49.1838856 
   300.0000000     46.6757028      8.8004894     13.4415352     49.3158496 
   310.0000000     46.5854557      9.2490999     13.9219619     49.4526767 
   320.0000000     46.4907180      9.6985431     14.3912797     49.5942518 
   330.0000000     46.3914833     10.1484383     14.8503129     49.7404679 
   340.0000000     46.2877488     10.5984639     15.2998959     49.8912265 
   350.0000000     46.1795145     11.0483503     15.7408490     50.0464371 
   360.0000000     46.0667830     11.4978732     16.1739593     50.2060174 
   370.0000000     45.9495589     11.9468480     16.5999674     50.3698927 
   380.0000000     45.8278484     12.3951236     17.0195570     50.5379954 
   390.0000000     45.7016591     12.8425777     17.4333497     50.7102644 
   400.0000000     45.5709999     13.2891124     17.8419014     50.8866449 
   410.0000000     45.4358802     13.7346498     18.2457016     51.0670866 
   420.0000000     45.2963104     14.1791287     18.6451750     51.2515445 
   430.0000000     45.1523013     14.6225014     19.0406832     51.4399769 
   440.0000000     45.0038642     15.0647312     19.4325289     51.6323459 
   450.0000000     44.8510106     15.5057901     19.8209597     51.8286161 
   460.0000000     44.6937524     15.9456566     20.2061728     52.0287544 
   470.0000000     44.5321015     16.3843146     20.5883200     52.2327294 
   480.0000000     44.3660702     16.8217517     20.9675121     52.4405110 
   490.0000000     44.1956706     17.2579581     21.3438245     52.6520701 
   500.0000000     44.0209151     17.6929258     21.7173009     52.8673780 
   510.0000000     43.8418162     18.1266479     22.0879585     53.0864066 
   520.0000000     43.6583863     18.5591181     22.4557919     53.3091277 
   530.0000000     43.4706381     18.9903301     22.8207767     53.5355131 
   540.0000000     43.2785840     19.4202773     23.1828732     53.7655337 
   550.0000000     43.0822367     19.8489526     23.5420295     53.9991606 
   560.0000000     42.8816092     20.2763484     23.8981842     54.2363643 
   570.0000000     42.6767141     20.7024562     24.2512693     54.4771141 
   580.0000000     42.4675644     21.1272669     24.6012119     54.7213792 
   590.0000000     42.2541731     21.5507704     24.9479364     54.9691276 
   600.0000000     42.0365534     21.9729559     25.2913663     55.2203269 
   610.0000000     41.8147184     22.3938120     25.6314253     55.4749437 
   620.0000000     41.5886816     22.8133264     25.9680386     55.7329440 
   630.0000000     41.3584564     23.2314863     26.3011340     55.9942928 
   640.0000000     41.1240564     23.6482785     26.6306427     56.2589546 
   650.0000000     40.8854954     24.0636893     26.9564999     56.5268934 
   660.0000000     40.6427873     24.4777045     27.2786451     56.7980723 
   670.0000000     40.3959460     24.8903101     27.5970230     57.0724538 
   680.0000000     40.1449858     25.3014915     27.9115833     57.3500000 
   690.0000000     39.8899210     25.7112342     28.2222812     57.6306726 
   700.0000000     39.6307660     26.1195238     28.5290772     57.9144327 
   710.0000000     39.3675354     26.5263459     28.8319374     58.2012410 
   720.0000000     39.1002440     26.9316863     29.1308334     58.4910581 
   730.0000000     38.8289067     27.3355311     29.4257420     58.7838444 
   740.0000000     38.5535384     27.7378665     29.7166456     59.0795596 
   750.0000000     38.2741544     28.1386793     30.0035315     59.3781639 
   760.0000000     37.9907700     28.5379565     30.2863920     59.6796169 
   770.0000000     37.7034005     28.9356855     30.5652242     59.9838783 
   780.0000000     37.4120614     29.3318545     30.8400297     60.2909079 
   790.0000000     37.1167686     29.7264518     31.1108145     60.6006655 
   800.0000000     36.8175377     30.1194665     31.3775886     60.9131109 
   810.0000000     36.5143846     30.5108881     31.6403659     61.2282040 
   820.0000000     36.2073253     30.9007069     31.8991638     61.5459050 
   830.0000000     35.8963758     31.2889135     32.1540035     61.8661740 
   840.0000000     35.5815524     31.6754994     32.4049088     62.1889719 
   850.0000000     35.2628713     32.0604564     32.6519067     62.5142592 
   860.0000000     34.9403487     32.4437771     32.8950270     62.8419970 
   870.0000000     34.6140012     32.8254548     33.1343019     63.1721469 
   880.0000000     34.2838451     33.2054833     33.3697657     63.5046704 
   890.0000000     33.9498970     33.5838568     33.6014549     63.8395296 
   900.0000000     33.6121735     33.9605706     33.8294081     64.1766870 
   910.0000000     33.2706912     34.3356201     34.0536651     64.5161055 
   920.0000000     32.9254667     34.7090016     34.2742678     64.8577482 
   930.0000000     32.5765167     35.0807119     34.4912589     65.2015788 
   940.0000000     32.2238580     35.4507483     34.7046828     65.5475614 
   950.0000000     31.8675073     35.8191088     34.9145845     65.8956607 
   960.0000000     31.5074814     36.1857918     35.1210101     66.2458415 
   970.0000000     31.1437971     36.5507963     35.3240066     66.5980695 
   980.0000000     30.7764711     36.9141217     35.5236215     66.9523104 
   990.0000000     30.4055203     37.2757682     35.7199027     67.3085308 
  1000.0000000     30.0309613     37.6357362     35.9128988     67.6666975 
  1010.0000000     29.6528111     37.9940266     36.1026586     68.0267780 
  1020.0000000     29.2710864     38.3506409     36.2892310     68.3887401 
  1030.0000000     28.8858039     38.7055808     36.4726653     68.7525521 
  1040.0000000     28.4969804     39.0588488     36.6530106     69.1181832 
  1050.0000000     28.1046325     39.4104474     36.8303162     69.4856023 
  1060.0000000     27.7087770     39.7603797     37.0046312     69.8547795 
  1070.0000000     27.3094304     40.1086492     37.1760045     70.2256850 
  1080.0000000     26.9066095     40.4552596     37.3444850     70.5982899 
  1090.0000000     26.5003308     40.8002152     37.5101211     70.9725654 
  1100.0000000     26.0906107     41.1435203     37.6729610     71.3484830 
  1110.0000000     25.6774658     41.4851797     37.8330526     71.7260153 
  1120.0000000     25.2609126     41.8251986     37.9904434     72.1051350 
  1130.0000000     24.8409673     42.1635823     38.1451805     72.4858153 
  1140.0000000     24.4176464     42.5003365     38.2973103     72.8680300 
  1150.0000000     23.9909660     42.8354670     38.4468791     73.2517530 
  1160.0000000     23.5609424     43.1689799     38.5939323     73.6369591 
  1170.0000000     23.1275918     43.5008818     38.7385151     74.0236235 
  1180.0000000     22.6909301     43.8311790     38.8806720     74.4117213 
  1190.0000000     22.2509735     44.1598785     39.0204468     74.8012289 
  1200.0000000     21.8077379     44.4869872     39.1578829     75.1921225 
  1210.0000000     21.3612390     44.8125123     39.2930232     75.5843789 
  1220.0000000     20.9114929     45.1364611     39.4259096     75.9779754 
  1230.0000000     20.4585151     45.4588412     39.5565837     76.3728898 
  1240.0000000     20.0023212     45.7796602     39.6850863     76.7690998 
  1250.0000000     19.5429270     46.0989259     39.8114578     77.1665844 
  1260.0000000     19.0803479     46.4166462     39.9357377     77.5653221 
  1270.0000000     18.6145992     46.7328292     40.0579650     77.9652923 
  1280.0000000     18.1456964     47.0474830     40.1781780     78.3664746 
  1290.0000000     17.6736546     47.3606160     40.2964145     78.7688492 
  1300.0000000     17.1984891     47.6722364     40.4127113     79.1723964 
  1310.0000000     16.7202149     47.9823528     40.5271050     79.5770971 
  1320.0000000     16.2388470     48.2909737     40.6396313     79.9829323 
  1330.0000000     15.7544004     48.5981077     40.7503254     80.3898836 
  1340.0000000     15.2668898     48.9037635     40.8592216     80.7979329 
  1350.0000000     14.7763300     49.2079498     40.9663539     81.2070622 
  1360.0000000     14.2827357     49.5106754     41.0717556     81.6172542 
  1370.0000000     13.7861214     49.8119491     41.1754592     82.0284917 
  1380.0000000     13.2865015     50.1117799     41.2774967     82.4407578 
  1390.0000000     12.7838905     50.4101767     41.3778997     82.8540361 
  1400.0000000     12.2783027     50.7071484     41.4766989     83.2683105 
  1410.0000000     11.7697523     51.0027040     41.5739245     83.6835649 
  1420.0000000     11.2582533     51.2968524     41.6696063     84.0997837 
  1430.0000000     10.7438199     51.5896028     41.7637731     84.5169519 
  1440.0000000     10.2264659     51.8809642     41.8564537     84.9350543 
  1450.0000000      9.7062052     52.1709455     41.9476759     85.3540762 
  1460.0000000      9.1830516     52.4595558     42.0374671     85.7740031 
  1470.0000000      8.6570186     52.7468042     42.1258542     86.1948208 
  1480.0000000      8.1281200     53.0326997     42.2128635     86.6165156 
  1490.0000000      7.5963691     53.3172513     42.2985209     87.0390735 
  1500.0000000      7.0617794     53.6004681     42.3828516     87.4624816 
  1510.0000000      6.5243642     53.8823590     42.4658804     87.8867263 
  1520.0000000      5.9841366     54.1629331     42.5476315     88.3117949 
  1530.0000000      5.4411099     54.4421992     42.6281289     88.7376747 
  1540.0000000      4.8952970     54.7201665     42.7073957     89.1643534 
  1550.0000000      4.3467109     54.9968437     42.7854549     89.5918186 
  1560.0000000      3.7953644     55.2722398     42.8623289     90.0200585 
  1570.0000000      3.2412703     55.5463637     42.9380395     90.4490613 
  1580.0000000      2.6844413     55.8192242     43.0126083     90.8788155 
  1590.0000000      2.1248900     56.0908300     43.0860563     91.3093097 
  1600.0000000      1.5626289     56.3611901     43.1584041     91.7405331 
  1610.0000000      0.9976703     56.6303130     43.2296719     92.1724742 
  1620.0000000      0.4300267     56.8982075     43.2998796     92.6051229 
  1630.0000000     -0.1402898     57.1648823     43.3690464     93.0384683 
  1640.0000000     -0.7132669     57.4303459     43.4371915     93.4725004 
  1650.0000000     -1.2888927     57.6946070     43.5043333     93.9072088 
  1660.0000000     -1.8671551     57.9576740     43.5704901     94.3425837 
  1670.0000000     -2.4480422     58.2195555     43.6356798     94.7786155 
  1680.0000000     -3.0315423     58.4802598     43.6999199     95.2152942 
  1690.0000000     -3.6176435     58.7397954     43.7632274     95.6526107 
  1700.0000000     -4.2063343     58.9981706     43.8256192     96.0905557 
  1710.0000000     -4.7976031     59.2553937     43.8871117     96.5291201 
  1720.0000000     -5.3914384     59.5114729     43.9477210     96.9682950 
  1730.0000000     -5.9878287     59.7664164     44.0074629     97.4080717 
  1740.0000000     -6.5867629     60.0202324     44.0663528     97.8484415 
  1750.0000000     -7.1882297     60.2729289     44.1244059     98.2893959 
  1760.0000000     -7.7922178     60.5245140     44.1816369     98.7309268 
  1770.0000000     -8.3987163     60.7749956     44.2380605     99.1730259 
  1780.0000000     -9.0077141     61.0243817     44.2936909     99.6156853 
  1790.0000000     -9.6192003     61.2726801     44.3485419    100.0588971 
  1800.0000000    -10.2331641     61.5198987     44.4026274    100.5026536 
  1810.0000000    -10.8495947     61.7660452     44.4559606    100.9469471 
  1820.0000000    -11.4684814     62.0111274     44.5085547    101.3917705 
  1830.0000000    -12.0898137     62.2551528     44.5604225    101.8371159 
  1840.0000000    -12.7135810     62.4981290     44.6115767    102.2829764 
  1850.0000000    -13.3397728     62.7400637     44.6620296    102.7293450 
  1860.0000000    -13.9683788     62.9809643     44.7117932    103.1762148 
  1870.0000000    -14.5993887     63.2208382     44.7608794    103.6235787 
  1880.0000000    -15.2327922     63.4596927     44.8092999    104.0714301 
  1890.0000000    -15.8685791     63.6975353     44.8570661    104.5197626 
  1900.0000000    -16.5067395     63.9343731     44.9041890    104.9685694 
  1910.0000000    -17.1472633     64.1702133     44.9506796    105.4178441 
  1920.0000000    -17.7901405     64.4050632     44.9965487    105.8675808 
  1930.0000000    -18.4353613     64.6389297     45.0418067    106.3177730 
  1940.0000000    -19.0829158     64.8718200     45.0864639    106.7684150 
  1950.0000000    -19.7327944     65.1037410     45.1305305    107.2195005 
  1960.0000000    -20.3849874     65.3346995     45.1740163    107.6710236 
  1970.0000000    -21.0394852     65.5647026     45.2169311    108.1229789 
  1980.0000000    -21.6962783     65.7937569     45.2592842    108.5753604 
  1990.0000000    -22.3553572     66.0218693     45.3010852    109.0281627 
  2000.0000000    -23.0167126     66.2490464     45.3423430    109.4813802 
  2010.0000000    -23.6803351     66.4752949     45.3830668    109.9350076 
  2020.0000000    -24.3462154     66.7006214     45.4232652    110.3890398 
  2030.0000000    -25.0143444     66.9250324     45.4629468    110.8434714 
  2040.0000000    -25.6847130     67.1485344     45.5021203    111.2982972 
  2050.0000000    -26.3573121     67.3711338     45.5407937    111.7535122 
  2060.0000000    -27.0321327     67.5928369     45.5789752    112.2091113 
  2070.0000000    -27.7091659     67.8136502     45.6166729    112.6650900 
  2080.0000000    -28.3884028     68.0335798     45.6538946    113.1214432 
  2090.0000000    -29.0698346     68.2526320     45.6906478    113.5781663 
  2100.0000000    -29.7534525     68.4708129     45.7269402    114.0352546 
  2110.0000000    -30.4392479     68.6881287     45.7627791    114.4927037 
  2120.0000000    -31.1272122     68.9045854     45.7981717    114.9505088 
  2130.0000000    -31.8173368     69.1201889     45.8331252    115.4086656 
  2140.0000000    -32.5096132     69.3349453     45.8676465    115.8671697 
  2150.0000000    -33.2040329     69.5488605     45.9017425    116.3260172 
  2160.0000000    -33.9005876     69.7619402     45.9354198    116.7852032 
  2170.0000000    -34.5992690     69.9741903     45.9686850    117.2447240 
  2180.0000000    -35.3000687     70.1856166     46.0015447    117.7045755 
  2190.0000000    -36.0029786     70.3962248     46.0340051    118.1647537 
  2200.0000000    -36.7079905     70.6060204     46.0660725    118.6252544 
  2210.0000000    -37.4150963     70.8150091     46.0977529    119.0860738 
  2220.0000000    -38.1242880     71.0231965     46.1290523    119.5472082 
  2230.0000000    -38.8355576     71.2305880     46.1599767    120.0086536 
  2240.0000000    -39.5488971     71.4371891     46.1905318    120.4704065 
  2250.0000000    -40.2642987     71.6430052     46.2207233    120.9324630 
  2260.0000000    -40.9817546     71.8480417     46.2505567    121.3948196 
  2270.0000000    -41.7012570     72.0523040     46.2800374    121.8574731 
  2280.0000000    -42.4227981     72.2557971     46.3091709    122.3204193 
  2290.0000000    -43.1463704     72.4585265     46.3379624    122.7836553 
  2300.0000000    -43.8719661     72.6604972     46.3664171    123.2471775 
  2310.0000000    -44.5995778     72.8617144     46.3945400    123.7109825 
  2320.0000000    -45.3291979     73.0621832     46.4223361    124.1750671 
  2330.0000000    -46.0608190     73.2619087     46.4498104    124.6394283 
  2340.0000000    -46.7944336     73.4608957     46.4769675    125.1040623 
  2350.0000000    -47.5300345     73.6591493     46.5038123    125.5689664 
  2360.0000000    -48.2676142     73.8566745     46.5303493    126.0341376 
  2370.0000000    -49.0071655     74.0534759     46.5565832    126.4995724 
  2380.0000000    -49.7486813     74.2495586     46.5825183    126.9652682 
  2390.0000000    -50.4921543     74.4449273     46.6081591    127.4312219 
  2400.0000000    -51.2375775     74.6395866     46.6335099    127.8974303 
  2410.0000000    -51.9849437     74.8335414     46.6585749    128.3638911 
  2420.0000000    -52.7342460     75.0267963     46.6833582    128.8306010 
  2430.0000000    -53.4854773     75.2193558     46.7078640    129.2975573 
  2440.0000000    -54.2386308     75.4112246     46.7320963    129.7647572 
  2450.0000000    -54.9936995     75.6024073     46.7560591    130.2321984 
  2460.0000000    -55.7506767     75.7929083     46.7797561    130.6998777 
  2470.0000000    -56.5095554     75.9827320     46.8031912    131.1677926 
  2480.0000000    -57.2703291     76.1718829     46.8263682    131.6359405 
  2490.0000000    -58.0329909     76.3603655     46.8492908    132.1043192 
  2500.0000000    -58.7975342     76.5481839     46.8719624    132.5729256 
  2510.0000000    -59.5639523     76.7353426     46.8943868    133.0417576 
  2520.0000000    -60.3322388     76.9218458     46.9165674    133.5108126 
  2530.0000000    -61.1023871     77.1076977     46.9385076    133.9800881 
  2540.0000000    -61.8743906     77.2929026     46.9602108    134.4495820 
  2550.0000000    -62.6482430     77.4774645     46.9816804    134.9192915 
  2560.0000000    -63.4239378     77.6613877     47.0029195    135.3892147 
  2570.0000000    -64.2014686     77.8446762     47.0239314    135.8593492 
  2580.0000000    -64.9808292     78.0273340     47.0447193    136.3296925 
  2590.0000000    -65.7620132     78.2093653     47.0652862    136.8002429 
  2600.0000000    -66.5450144     78.3907739     47.0856352    137.2709977 
  2610.0000000    -67.3298266     78.5715638     47.1057692    137.7419549 
  2620.0000000    -68.1164437     78.7517389     47.1256913    138.2131122 
  2630.0000000    -68.9048594     78.9313032     47.1454043    138.6844680 
  2640.0000000    -69.6950677     79.1102604     47.1649111    139.1560198 
  2650.0000000    -70.4870626     79.2886144     47.1842145    139.6277656 
  2660.0000000    -71.2808380     79.4663689     47.2033172    140.0997033 
  2670.0000000    -72.0763880     79.6435278     47.2222219    140.5718312 
  2680.0000000    -72.8737066     79.8200946     47.2409314    141.0441469 
  2690.0000000    -73.6727879     79.9960732     47.2594482    141.5166490 
  2700.0000000    -74.4736261     80.1714672     47.2777749    141.9893353 
  2710.0000000    -75.2762153     80.3462802     47.2959140    142.4622040 
  2720.0000000    -76.0805498     80.5205158     47.3138681    142.9352532 
  2730.0000000    -76.8866237     80.6941775     47.3316396    143.4084809 
  2740.0000000    -77.6944314     80.8672689     47.3492309    143.8818854 
  2750.0000000    -78.5039672     81.0397935     47.3666444    144.3554649 
  2760.0000000    -79.3152254     81.2117547     47.3838824    144.8292176 
  2770.0000000    -80.1282004     81.3831561     47.4009473    145.3031420 
  2780.0000000    -80.9428867     81.5540009     47.4178412    145.7772358 
  2790.0000000    -81.7592786     81.7242927     47.4345665    146.2514980 
  2800.0000000    -82.5773707     81.8940348     47.4511253    146.7259267 
  2810.0000000    -83.3971575     82.0632304     47.4675198    147.2005199 
  2820.0000000    -84.2186335     82.2318830     47.4837520    147.6752766 
  2830.0000000    -85.0417933     82.3999957     47.4998242    148.1501945 
  2840.0000000    -85.8666316     82.5675719     47.5157383    148.6252726 
  2850.0000000    -86.6931430     82.7346147     47.5314964    149.1005089 
  2860.0000000    -87.5213221     82.9011273     47.5471005    149.5759020 
  2870.0000000    -88.3511638     83.0671129     47.5625525    150.0514502 
  2880.0000000    -89.1826627     83.2325747     47.5778544    150.5271524 
  2890.0000000    -90.0158135     83.3975157     47.5930080    151.0030069 
  2900.0000000    -90.8506112     83.5619391     47.6080153    151.4790122 
  2910.0000000    -91.6870506     83.7258479     47.6228781    151.9551668 
  2920.0000000    -92.5251265     83.8892451     47.6375982    152.4314692 
  2930.0000000    -93.3648338     84.0521338     47.6521774    152.9079182 
  2940.0000000    -94.2061675     84.2145169     47.6666174    153.3845122 
  2950.0000000    -95.0491225     84.3763975     47.6809200    153.8612501 
  2960.0000000    -95.8936938     84.5377784     47.6950869    154.3381303 
  2970.0000000    -96.7398764     84.6986626     47.7091198    154.8151515 
  2980.0000000    -97.5876654     84.8590529     47.7230203    155.2923122 
  2990.0000000    -98.4370558     85.0189522     47.7367900    155.7696113 
  3000.0000000    -99.2880428     85.1783635     47.7504307    156.2470477 


