# temperature[K] Free energy [kJ/mol] Entropy [J/K/mol] Heat capacity [J/K/mol] Energy [kJ/mol]
     0.0000000     40.0271932      0.0000000      0.0000000     40.0271932 
    10.0000000     40.0269743      0.0396999      0.0526304     40.0273713 
    20.0000000     40.0262170      0.1213519      0.2199312     40.0286440 
    30.0000000     40.0243662      0.2572262      0.4813412     40.0320830 
    40.0000000     40.0209172      0.4397555      0.8141204     40.0385074 
    50.0000000     40.0154371      0.6625815      1.2075773     40.0485662 
    60.0000000     40.0075437      0.9220351      1.6632837     40.0628658 
    70.0000000     39.9968784      1.2169128      2.1880128     40.0820623 
    80.0000000     39.9830872      1.5472748      2.7854183     40.1068692 
    90.0000000     39.9658143      1.9132076      3.4522926     40.1380030 
   100.0000000     39.9447064      2.3140908      4.1791832     40.1761155 
   110.0000000     39.9194210      2.7483774      4.9528014     40.2217425 
   120.0000000     39.8896354      3.2136903      5.7584435     40.2752782 
   130.0000000     39.8550537      3.7070500      6.5817696     40.3369702 
   140.0000000     39.8154120      4.2251241      7.4098887     40.4069294 
   150.0000000     39.7704804      4.7644465      8.2319021     40.4851474 
   160.0000000     39.7200637      5.3215877      9.0390791     40.5715177 
   170.0000000     39.6640002      5.8932769      9.8248066     40.6658573 
   180.0000000     39.6021598      6.4764821     10.5844096     40.7679266 
   190.0000000     39.5344413      7.0684575     11.3149079     40.8774482 
   200.0000000     39.4607696      7.6667642     12.0147496     40.9941224 
   210.0000000     39.3810921      8.2692743     12.6835472     41.1176397 
   220.0000000     39.2953762      8.8741608     13.3218288     41.2476916 
   230.0000000     39.2036061      9.4798801     13.9308139     41.3839785 
   240.0000000     39.1057801     10.0851490     14.5122179     41.5262159 
   250.0000000     39.0019082     10.6889184     15.0680841     41.6741378 
   260.0000000     38.8920096     11.2903473     15.6006456     41.8274999 
   270.0000000     38.7761112     11.8887758     16.1122128     41.9860807 
   280.0000000     38.6542458     12.4837002     16.6050854     42.1496819 
   290.0000000     38.5264501     13.0747495     17.0814853     42.3181275 
   300.0000000     38.3927646     13.6616635     17.5435083     42.4912637 
   310.0000000     38.2532312     14.2442741     17.9930911     42.6689562 
   320.0000000     38.1078937     14.8224878     18.4319908     42.8510898 
   330.0000000     37.9567962     15.3962710     18.8617751     43.0375656 
   340.0000000     37.7999830     15.9656368     19.2838199     43.2282995 
   350.0000000     37.6374981     16.5306348     19.6993136     43.4232203 
   360.0000000     37.4693847     17.0913409     20.1092654     43.6222674 
   370.0000000     37.2956852     17.6478504     20.5145173     43.8253898 
   380.0000000     37.1164413     18.2002713     20.9157570     44.0325444 
   390.0000000     36.9316931     18.7487191     21.3135328     44.2436935 
   400.0000000     36.7414797     19.2933129     21.7082690     44.4588049 
   410.0000000     36.5458393     19.8341721     22.1002800     44.6778499 
   420.0000000     36.3448084     20.3714138     22.4897856     44.9008022 
   430.0000000     36.1384227     20.9051511     22.8769239     45.1276377 
   440.0000000     35.9267167     21.4354917     23.2617640     45.3583330 
   450.0000000     35.7097238     21.9625367     23.6443181     45.5928653 
   460.0000000     35.4874766     22.4863805     24.0245514     45.8312116 
   470.0000000     35.2600066     23.0071102     24.4023916     46.0733484 
   480.0000000     35.0273445     23.5248055     24.7777375     46.3192511 
   490.0000000     34.7895203     24.0395389     25.1504656     46.5688944 
   500.0000000     34.5465634     24.5513758     25.5204371     46.8222513 
   510.0000000     34.2985023     25.0603748     25.8875027     47.0792934 
   520.0000000     34.0453652     25.5665884     26.2515074     47.3399912 
   530.0000000     33.7871797     26.0700627     26.6122943     47.6043129 
   540.0000000     33.5239729     26.5708386     26.9697077     47.8722257 
   550.0000000     33.2557718     27.0689518     27.3235958     48.1436953 
   560.0000000     32.9826026     27.5644335     27.6738126     48.4186854 
   570.0000000     32.7044918     28.0573106     28.0202197     48.6971588 
   580.0000000     32.4214650     28.5476063     28.3626871     48.9790767 
   590.0000000     32.1335482     29.0353404     28.7010949     49.2643990 
   600.0000000     31.8407667     29.5205300     29.0353330     49.5530847 
   610.0000000     31.5431460     30.0031893     29.3653021     49.8450915 
   620.0000000     31.2407113     30.4833305     29.6909136     50.1403762 
   630.0000000     30.9334878     30.9609638     30.0120897     50.4388950 
   640.0000000     30.6215004     31.4360978     30.3287633     50.7406030 
   650.0000000     30.3047741     31.9087399     30.6408777     51.0454550 
   660.0000000     29.9833339     32.3788959     30.9483862     51.3534052 
   670.0000000     29.6572045     32.8465713     31.2512519     51.6644073 
   680.0000000     29.3264107     33.3117705     31.5494473     51.9784146 
   690.0000000     28.9909773     33.7744975     31.8429536     52.2953806 
   700.0000000     28.6509290     34.2347559     32.1317603     52.6152581 
   710.0000000     28.3062904     34.6925489     32.4158649     52.9380001 
   720.0000000     27.9570862     35.1478799     32.6952719     53.2635597 
   730.0000000     27.6033410     35.6007520     32.9699929     53.5918900 
   740.0000000     27.2450793     36.0511685     33.2400456     53.9229440 
   750.0000000     26.8823258     36.4991327     33.5054537     54.2566753 
   760.0000000     26.5151049     36.9446485     33.7662460     54.5930378 
   770.0000000     26.1434410     37.3877195     34.0224563     54.9319850 
   780.0000000     25.7673586     37.8283501     34.2741229     55.2734717 
   790.0000000     25.3868821     38.2665448     34.5212879     55.6174525 
   800.0000000     25.0020358     38.7023085     34.7639971     55.9638826 
   810.0000000     24.6128440     39.1356465     35.0022996     56.3127177 
   820.0000000     24.2193309     39.5665648     35.2362473     56.6639140 
   830.0000000     23.8215208     39.9950693     35.4658944     57.0174283 
   840.0000000     23.4194376     40.4211669     35.6912977     57.3732178 
   850.0000000     23.0131054     40.8448646     35.9125157     57.7312403 
   860.0000000     22.6025483     41.2661699     36.1296086     58.0914544 
   870.0000000     22.1877900     41.6850908     36.3426378     58.4538190 
   880.0000000     21.7688544     42.1016357     36.5516662     58.8182938 
   890.0000000     21.3457651     42.5158135     36.7567574     59.1848391 
   900.0000000     20.9185460     42.9276334     36.9579757     59.5534161 
   910.0000000     20.4872203     43.3371051     37.1553860     59.9239859 
   920.0000000     20.0518116     43.7442387     37.3490536     60.2965112 
   930.0000000     19.6123433     44.1490446     37.5390441     60.6709548 
   940.0000000     19.1688385     44.5515336     37.7254231     61.0472801 
   950.0000000     18.7213203     44.9517170     37.9082560     61.4254514 
   960.0000000     18.2698118     45.3496061     38.0876083     61.8054337 
   970.0000000     17.8143358     45.7452128     38.2635451     62.1871922 
   980.0000000     17.3549151     46.1385492     38.4361310     62.5706933 
   990.0000000     16.8915723     46.5296278     38.6054304     62.9559038 
  1000.0000000     16.4243300     46.9184612     38.7715071     63.3427912 
  1010.0000000     15.9532105     47.3050623     38.9344241     63.7313234 
  1020.0000000     15.4782362     47.6894443     39.0942439     64.1214694 
  1030.0000000     14.9994290     48.0716206     39.2510284     64.5131982 
  1040.0000000     14.5168111     48.4516048     39.4048385     64.9064801 
  1050.0000000     14.0304042     48.8294106     39.5557345     65.3012853 
  1060.0000000     13.5402301     49.2050520     39.7037757     65.6975852 
  1070.0000000     13.0463103     49.5785432     39.8490206     66.0953515 
  1080.0000000     12.5486663     49.9498983     39.9915268     66.4945565 
  1090.0000000     12.0473194     50.3191318     40.1313510     66.8951731 
  1100.0000000     11.5422907     50.6862582     40.2685489     67.2971747 
  1110.0000000     11.0336012     51.0512921     40.4031754     67.7005354 
  1120.0000000     10.5212718     51.4142483     40.5352843     68.1052299 
  1130.0000000     10.0053231     51.7751414     40.6649285     68.5112329 
  1140.0000000      9.4857758     52.1339865     40.7921599     68.9185204 
  1150.0000000      8.9626502     52.4907983     40.9170294     69.3270682 
  1160.0000000      8.4359666     52.8455920     41.0395870     69.7368533 
  1170.0000000      7.9057450     53.1983824     41.1598816     70.1478524 
  1180.0000000      7.3720055     53.5491847     41.2779614     70.5600434 
  1190.0000000      6.8347679     53.8980139     41.3938733     70.9734044 
  1200.0000000      6.2940518     54.2448851     41.5076635     71.3879139 
  1210.0000000      5.7498767     54.5898133     41.6193770     71.8035508 
  1220.0000000      5.2022619     54.9328137     41.7290582     72.2202946 
  1230.0000000      4.6512268     55.2739013     41.8367502     72.6381254 
  1240.0000000      4.0967902     55.6130911     41.9424955     73.0570232 
  1250.0000000      3.5389712     55.9503982     42.0463355     73.4769690 
  1260.0000000      2.9777885     56.2858374     42.1483107     73.8979436 
  1270.0000000      2.4132607     56.6194239     42.2484609     74.3199291 
  1280.0000000      1.8454062     56.9511725     42.3468248     74.7429070 
  1290.0000000      1.2742433     57.2810980     42.4434404     75.1668597 
  1300.0000000      0.6997902     57.6092153     42.5383447     75.5917701 
  1310.0000000      0.1220650     57.9355390     42.6315742     76.0176211 
  1320.0000000     -0.4589146     58.2600839     42.7231641     76.4443961 
  1330.0000000     -1.0431308     58.5828645     42.8131493     76.8720790 
  1340.0000000     -1.6305661     58.9038955     42.9015636     77.3006539 
  1350.0000000     -2.2212030     59.2231912     42.9884401     77.7301051 
  1360.0000000     -2.8150242     59.5407660     43.0738112     78.1604176 
  1370.0000000     -3.4120126     59.8566343     43.1577086     78.5915764 
  1380.0000000     -4.0121512     60.1708103     43.2401630     79.0235670 
  1390.0000000     -4.6154232     60.4833080     43.3212049     79.4563749 
  1400.0000000     -5.2218118     60.7941416     43.4008636     79.8899864 
  1410.0000000     -5.8313005     61.1033250     43.4791680     80.3243877 
  1420.0000000     -6.4438729     61.4108720     43.5561462     80.7595653 
  1430.0000000     -7.0595126     61.7167964     43.6318259     81.1955063 
  1440.0000000     -7.6782034     62.0211119     43.7062339     81.6321977 
  1450.0000000     -8.2999295     62.3238320     43.7793964     82.0696269 
  1460.0000000     -8.9246748     62.6249701     43.8513391     82.5077815 
  1470.0000000     -9.5524237     62.9245397     43.9220872     82.9466497 
  1480.0000000    -10.1831604     63.2225539     43.9916650     83.3862194 
  1490.0000000    -10.8168696     63.5190260     44.0600966     83.8264791 
  1500.0000000    -11.4535358     63.8139689     44.1274053     84.2674176 
  1510.0000000    -12.0931439     64.1073957     44.1936139     84.7090236 
  1520.0000000    -12.7356787     64.3993191     44.2587448     85.1512863 
  1530.0000000    -13.3811253     64.6897518     44.3228198     85.5941950 
  1540.0000000    -14.0294689     64.9787065     44.3858601     86.0377391 
  1550.0000000    -14.6806946     65.2661957     44.4478866     86.4819087 
  1560.0000000    -15.3347879     65.5522318     44.5089196     86.9266937 
  1570.0000000    -15.9917344     65.8368270     44.5689789     87.3720840 
  1580.0000000    -16.6515197     66.1199935     44.6280840     87.8180700 
  1590.0000000    -17.3141296     66.4017434     44.6862539     88.2646424 
  1600.0000000    -17.9795499     66.6820887     44.7435070     88.7117920 
  1610.0000000    -18.6477667     66.9610412     44.7998614     89.1595096 
  1620.0000000    -19.3187661     67.2386126     44.8553350     89.6077863 
  1630.0000000    -19.9925344     67.5148146     44.9099449     90.0566134 
  1640.0000000    -20.6690579     67.7896587     44.9637080     90.5059824 
  1650.0000000    -21.3483231     68.0631563     45.0166409     90.9558848 
  1660.0000000    -22.0303166     68.3353187     45.0687597     91.4063124 
  1670.0000000    -22.7150250     68.6061571     45.1200802     91.8572574 
  1680.0000000    -23.4024353     68.8756826     45.1706178     92.3087115 
  1690.0000000    -24.0925343     69.1439062     45.2203876     92.7606672 
  1700.0000000    -24.7853091     69.4108388     45.2694043     93.2131169 
  1710.0000000    -25.4807468     69.6764910     45.3176822     93.6660528 
  1720.0000000    -26.1788347     69.9408737     45.3652356     94.1194681 
  1730.0000000    -26.8795601     70.2039973     45.4120782     94.5733552 
  1740.0000000    -27.5829105     70.4658723     45.4582233     95.0277073 
  1750.0000000    -28.2888734     70.7265090     45.5036843     95.4825173 
  1760.0000000    -28.9974366     70.9859178     45.5484739     95.9377787 
  1770.0000000    -29.7085877     71.2441087     45.5926047     96.3934847 
  1780.0000000    -30.4223147     71.5010918     45.6360891     96.8496287 
  1790.0000000    -31.1386056     71.7568770     45.6789390     97.3062042 
  1800.0000000    -31.8574483     72.0114742     45.7211663     97.7632053 
  1810.0000000    -32.5788311     72.2648932     45.7627824     98.2206256 
  1820.0000000    -33.3027423     72.5171435     45.8037987     98.6784589 
  1830.0000000    -34.0291701     72.7682348     45.8442261     99.1366996 
  1840.0000000    -34.7581032     73.0181765     45.8840754     99.5953416 
  1850.0000000    -35.4895299     73.2669779     45.9233572    100.0543792 
  1860.0000000    -36.2234389     73.5146483     45.9620817    100.5138069 
  1870.0000000    -36.9598191     73.7611968     46.0002592    100.9736189 
  1880.0000000    -37.6986592     74.0066327     46.0378993    101.4338103 
  1890.0000000    -38.4399481     74.2509647     46.0750119    101.8943752 
  1900.0000000    -39.1836748     74.4942019     46.1116063    102.3553088 
  1910.0000000    -39.9298285     74.7363530     46.1476918    102.8166057 
  1920.0000000    -40.6783983     74.9774267     46.1832775    103.2782610 
  1930.0000000    -41.4293735     75.2174316     46.2183723    103.7402695 
  1940.0000000    -42.1827434     75.4563764     46.2529847    104.2026268 
  1950.0000000    -42.9384975     75.6942693     46.2871234    104.6653276 
  1960.0000000    -43.6966253     75.9311189     46.3207966    105.1283677 
  1970.0000000    -44.4571164     76.1669333     46.3540125    105.5917422 
  1980.0000000    -45.2199605     76.4017207     46.3867790    106.0554465 
  1990.0000000    -45.9851474     76.6354893     46.4191040    106.5194763 
  2000.0000000    -46.7526669     76.8682470     46.4509951    106.9838271 
  2010.0000000    -47.5225090     77.1000018     46.4824597    107.4484946 
  2020.0000000    -48.2946637     77.3307616     46.5135053    107.9134747 
  2030.0000000    -49.0691210     77.5605342     46.5441389    108.3787634 
  2040.0000000    -49.8458711     77.7893271     46.5743677    108.8443562 
  2050.0000000    -50.6249043     78.0171482     46.6041985    109.3102495 
  2060.0000000    -51.4062108     78.2440047     46.6336380    109.7764389 
  2070.0000000    -52.1897812     78.4699044     46.6626929    110.2429209 
  2080.0000000    -52.9756058     78.6948545     46.6913697    110.7096916 
  2090.0000000    -53.7636751     78.9188623     46.7196746    111.1767471 
  2100.0000000    -54.5539799     79.1419351     46.7476139    111.6440838 
  2110.0000000    -55.3465107     79.3640800     46.7751938    112.1116981 
  2120.0000000    -56.1412584     79.5853042     46.8024201    112.5795865 
  2130.0000000    -56.9382138     79.8056146     46.8292987    113.0477453 
  2140.0000000    -57.7373677     80.0250182     46.8558353    113.5161712 
  2150.0000000    -58.5387111     80.2435219     46.8820356    113.9848610 
  2160.0000000    -59.3422352     80.4611325     46.9079051    114.4538110 
  2170.0000000    -60.1479308     80.6778566     46.9334492    114.9230180 
  2180.0000000    -60.9557894     80.8937010     46.9586731    115.3924788 
  2190.0000000    -61.7658019     81.1086723     46.9835820    115.8621904 
  2200.0000000    -62.5779599     81.3227770     47.0081811    116.3321495 
  2210.0000000    -63.3922546     81.5360216     47.0324754    116.8023531 
  2220.0000000    -64.2086775     81.7484124     47.0564696    117.2727980 
  2230.0000000    -65.0272200     81.9599558     47.0801687    117.7434814 
  2240.0000000    -65.8478738     82.1706581     47.1035773    118.2144003 
  2250.0000000    -66.6706304     82.3805255     47.1267000    118.6855520 
  2260.0000000    -67.4954816     82.5895642     47.1495413    119.1569335 
  2270.0000000    -68.3224190     82.7977801     47.1721058    119.6285418 
  2280.0000000    -69.1514344     83.0051794     47.1943977    120.1003746 
  2290.0000000    -69.9825198     83.2117680     47.2164213    120.5724289 
  2300.0000000    -70.8156671     83.4175519     47.2381807    121.0447023 
  2310.0000000    -71.6508682     83.6225368     47.2596802    121.5171918 
  2320.0000000    -72.4881152     83.8267285     47.2809238    121.9898949 
  2330.0000000    -73.3274002     84.0301328     47.3019153    122.4628092 
  2340.0000000    -74.1687153     84.2327554     47.3226587    122.9359323 
  2350.0000000    -75.0120527     84.4346019     47.3431578    123.4092618 
  2360.0000000    -75.8574047     84.6356778     47.3634163    123.8827949 
  2370.0000000    -76.7047637     84.8359886     47.3834380    124.3565293 
  2380.0000000    -77.5541220     85.0355398     47.4032263    124.8304627 
  2390.0000000    -78.4054720     85.2343368     47.4227848    125.3045930 
  2400.0000000    -79.2588062     85.4323850     47.4421170    125.7789178 
  2410.0000000    -80.1141172     85.6296895     47.4612263    126.2534345 
  2420.0000000    -80.9713975     85.8262558     47.4801161    126.7281415 
  2430.0000000    -81.8306399     86.0220889     47.4987896    127.2030361 
  2440.0000000    -82.6918369     86.2171940     47.5172500    127.6781165 
  2450.0000000    -83.5549813     86.4115763     47.5355005    128.1533806 
  2460.0000000    -84.4200660     86.6052406     47.5535443    128.6288259 
  2470.0000000    -85.2870838     86.7981921     47.5713843    129.1044507 
  2480.0000000    -86.1560275     86.9904357     47.5890236    129.5802530 
  2490.0000000    -87.0268901     87.1819762     47.6064651    130.0562306 
  2500.0000000    -87.8996647     87.3728185     47.6237116    130.5323815 
  2510.0000000    -88.7743442     87.5629675     47.6407661    131.0087042 
  2520.0000000    -89.6509218     87.7524278     47.6576314    131.4851963 
  2530.0000000    -90.5293905     87.9412042     47.6743101    131.9618561 
  2540.0000000    -91.4097436     88.1293014     47.6908049    132.4386820 
  2550.0000000    -92.2919743     88.3167239     47.7071185    132.9156716 
  2560.0000000    -93.1760758     88.5034763     47.7232535    133.3928235 
  2570.0000000    -94.0620416     88.6895633     47.7392125    133.8701361 
  2580.0000000    -94.9498649     88.8749892     47.7549979    134.3476072 
  2590.0000000    -95.8395392     89.0597586     47.7706122    134.8252356 
  2600.0000000    -96.7310579     89.2438757     47.7860578    135.3030189 
  2610.0000000    -97.6244145     89.4273451     47.8013371    135.7809562 
  2620.0000000    -98.5196026     89.6101709     47.8164525    136.2590452 
  2630.0000000    -99.4166158     89.7923576     47.8314062    136.7372847 
  2640.0000000   -100.3154477     89.9739093     47.8462005    137.2156729 
  2650.0000000   -101.2160919     90.1548302     47.8608376    137.6942081 
  2660.0000000   -102.1185422     90.3351245     47.8753198    138.1728890 
  2670.0000000   -103.0227923     90.5147964     47.8896490    138.6517141 
  2680.0000000   -103.9288360     90.6938498     47.9038275    139.1306815 
  2690.0000000   -104.8366673     90.8722890     47.9178574    139.6097901 
  2700.0000000   -105.7462798     91.0501178     47.9317406    140.0890383 
  2710.0000000   -106.6576676     91.2273402     47.9454791    140.5684243 
  2720.0000000   -107.5708246     91.4039602     47.9590750    141.0479471 
  2730.0000000   -108.4857448     91.5799818     47.9725302    141.5276055 
  2740.0000000   -109.4024222     91.7554086     47.9858466    142.0073974 
  2750.0000000   -110.3208510     91.9302447     47.9990260    142.4873219 
  2760.0000000   -111.2410252     92.1044937     48.0120703    142.9673774 
  2770.0000000   -112.1629389     92.2781595     48.0249813    143.4475629 
  2780.0000000   -113.0865864     92.4512457     48.0377608    143.9278766 
  2790.0000000   -114.0119619     92.6237561     48.0504105    144.4083176 
  2800.0000000   -114.9390597     92.7956943     48.0629322    144.8888843 
  2810.0000000   -115.8678739     92.9670640     48.0753275    145.3695759 
  2820.0000000   -116.7983990     93.1378687     48.0875982    145.8503907 
  2830.0000000   -117.7306294     93.3081119     48.0997459    146.3313273 
  2840.0000000   -118.6645594     93.4777974     48.1117721    146.8123852 
  2850.0000000   -119.6001835     93.6469284     48.1236786    147.2935624 
  2860.0000000   -120.5374962     93.8155085     48.1354667    147.7748581 
  2870.0000000   -121.4764919     93.9835412     48.1471382    148.2562713 
  2880.0000000   -122.4171652     94.1510298     48.1586944    148.7378006 
  2890.0000000   -123.3595107     94.3179777     48.1701369    149.2194449 
  2900.0000000   -124.3035229     94.4843883     48.1814672    149.7012032 
  2910.0000000   -125.2491966     94.6502648     48.1926867    150.1830740 
  2920.0000000   -126.1965265     94.8156106     48.2037968    150.6650565 
  2930.0000000   -127.1455071     94.9804289     48.2147989    151.1471496 
  2940.0000000   -128.0961333     95.1447229     48.2256943    151.6293520 
  2950.0000000   -129.0483998     95.3084959     48.2364846    152.1116631 
  2960.0000000   -130.0023015     95.4717510     48.2471709    152.5940815 
  2970.0000000   -130.9578331     95.6344913     48.2577546    153.0766061 
  2980.0000000   -131.9149896     95.7967200     48.2682369    153.5592360 
  2990.0000000   -132.8737658     95.9584402     48.2786193    154.0419704 
  3000.0000000   -133.8341567     96.1196550     48.2889028    154.5248083 


